Freq [Hz]       dBSPL           Phase [Deg]
20.00           63.13           -66.21
20.56           63.52           -71.86
21.13           63.84           -76.58
21.71           64.04           -80.12
22.32           64.12           -82.38
22.94           64.31           -87.59
23.58           64.36           -90.75
24.23           64.26           -91.15
24.90           63.99           -89.06
25.60           63.55           -85.10
26.31           62.95           -80.28
27.04           62.20           -76.03
27.79           61.37           -73.74
28.56           60.52           -74.43
29.36           59.76           -78.64
30.17           59.15           -86.38
31.01           58.71           -96.99
31.87           58.40           -109.05
32.76           58.13           -120.50
33.67           57.83           -129.05
34.61           57.47           -132.59
35.57           57.04           -129.54
36.56           56.54           -119.01
37.57           56.07           -100.88
38.62           55.93           -75.83
39.69           56.88           -45.21
40.79           59.43           -11.11
41.93           62.85           24.10
43.09           65.99           58.01
44.29           68.43           88.49
45.52           70.27           113.98
46.79           71.72           133.58
48.09           73.04           147.10
49.42           74.45           154.83
50.80           76.05           157.49
52.21           77.80           156.27
53.66           79.55           152.81
55.15           81.16           148.94
56.69           82.62           145.99
58.26           84.01           144.73
59.88           85.42           145.29
61.54           86.91           147.57
63.26           88.45           151.44
65.01           89.96           156.75
66.82           91.40           163.11
68.68           92.76           169.88
70.59           94.05           176.55
72.55           95.27           -177.04
74.57           96.42           -170.60
76.64           97.48           -163.71
78.77           98.44           -156.14
80.96           99.31           -147.88
83.21           100.09          -139.05
85.52           100.79          -129.66
87.90           101.42          -119.59
90.34           101.98          -108.68
92.85           102.47          -96.81
95.43           102.89          -83.97
98.08           103.28          -70.15
100.81          103.62          -55.35
103.61          103.92          -39.58
106.49          104.18          -22.80
109.45          104.42          -4.98
112.49          104.62          13.82
115.62          104.77          33.50
118.84          104.88          54.10
122.14          104.91          75.77
125.53          104.87          98.72
129.02          104.80          123.13
132.61          104.70          149.03
136.29          104.59          176.30
140.08          104.47          -155.10
143.98          104.34          -125.07
147.98          104.23          -93.51
152.09          104.16          -60.55
156.32          104.17          -26.35
160.66          104.23          8.83
165.13          104.30          44.84
169.72          104.34          81.88
174.44          104.36          120.15
179.28          104.34          159.85
184.27          104.34          -159.06
189.39          104.33          -116.58
194.65          104.30          -72.78
200.06          104.23          -27.53
205.62          104.09          19.47
211.34          103.93          68.61
217.21          103.80          119.82
223.25          103.75          172.65
229.46          103.72          -133.22
235.83          103.67          -77.83
242.39          103.60          -20.85
249.12          103.53          37.88
256.05          103.50          98.46
263.17          103.56          160.61
270.48          103.65          -136.04
278.00          103.65          -71.16
285.73          103.56          -3.96
293.67          103.46          66.04
301.83          103.39          138.52
310.22          103.34          -146.94
318.84          103.26          -70.54
327.70          103.08          8.33
336.81          102.90          89.97
346.17          102.79          173.74
355.80          102.64          -100.73
365.68          102.37          -12.22
375.85          102.14          79.79
386.29          101.91          174.07
397.03          101.62          -88.12
408.07          101.58          13.12
419.41          101.66          115.92
431.07          101.49          -138.81
443.05          101.24          -29.35
455.36          101.26          82.81
468.02          101.15          -163.02
481.03          101.01          -43.24
494.40          101.11          79.25
508.14          101.11          -155.94
522.26          101.02          -26.92
536.78          100.93          105.92
551.70          101.05          -117.08
567.03          101.25          23.11
582.79          101.47          166.96
598.99          101.75          -47.82
615.64          101.70          100.52
632.75          101.47          -105.20
650.34          101.24          53.82
668.42          100.96          -141.16
686.99          100.89          27.67
706.09          100.56          -158.87
725.71          100.27          19.67
745.89          99.97           -155.80
766.62          99.74           32.89
787.93          99.65           -133.04
809.83          99.43           66.27
832.33          99.23           -89.20
855.47          98.72           122.02
879.25          98.44           -20.00
903.68          98.11           -156.83
928.80          97.69           71.66
954.62          96.94           -52.52
981.15          96.47           -168.68
1008.42         96.10           83.02
1036.45         95.76           -17.90
1065.26         95.62           -113.17
1094.87         95.42           158.67
1125.30         94.82           75.66
1156.58         94.50           8.16
1188.72         94.91           -54.78
1221.76         95.52           -112.45
1255.72         95.89           -164.69
1290.62         96.09           148.96
1326.50         96.04           107.16
1363.37         95.72           69.27
1401.26         95.18           36.27
1440.21         94.91           2.25
1480.24         93.79           -39.94
1521.38         92.35           -85.16
1563.67         90.72           -115.50
1607.13         90.58           -136.60
1651.80         90.69           -149.34
1697.71         91.93           -144.52
1744.90         93.06           -126.16
1793.40         93.77           -88.86
1843.24         94.53           -21.75
1894.48         95.20           74.45
1947.13         95.51           -172.77
2001.25         95.66           -48.03
2056.88         95.41           97.82
2114.05         95.17           -101.31
2172.81         94.75           77.22
2233.20         94.56           -89.72
2295.27         94.04           121.07
2359.07         93.62           -11.95
2424.64         92.82           -127.21
2492.03         92.30           135.78
2561.29         91.99           53.04
2632.48         91.39           -12.08
2705.65         90.63           -61.11
2780.86         89.69           -97.02
2858.15         88.75           -166.62
2937.59         87.78           135.24
3019.24         87.06           96.97
3103.16         86.37           80.38
3189.41         85.41           84.14
3278.06         85.27           113.10
3369.17         85.59           164.27
3462.82         86.16           -120.70
3559.06         86.44           14.49
3657.99         86.47           -158.31
3759.66         86.26           12.00
3864.16         86.12           -176.55
3971.56         85.70           20.73
4081.95         85.41           -112.71
4195.41         85.08           142.52
4312.02         85.66           66.64
4431.87         86.08           18.36
4555.05         86.19           -0.80
4681.66         86.32           34.30
4811.78         86.41           137.20
4945.53         86.44           -89.20
5082.99         86.48           77.52
5224.27         86.38           -81.02
5369.47         86.08           158.64
5518.72         86.42           74.91
5672.11         86.20           33.05
5829.76         86.39           33.83
5991.80         86.48           80.14
6158.34         86.28           145.70
6329.51         86.10           -134.83
6505.44         86.22           -14.81
6686.25         86.44           146.48
6872.10         86.40           -2.95
7063.10         86.65           -101.21
7259.42         87.16           -153.38
7461.19         87.35           -154.20
7668.58         87.44           -130.83
7881.72         87.37           -31.55
8100.79         87.19           82.64
8325.95         86.56           -113.74
8557.37         86.20           102.58
8795.22         87.28           8.95
9039.68         89.20           -28.72
9290.93         91.08           -5.66
9549.17         92.57           94.55
9814.59         93.25           -72.27
10087.38        93.35           -136.34
10367.76        93.38           -111.64
10655.93        93.55           -15.13
10952.11        93.77           159.14
11256.52        93.59           52.98
11569.39        93.58           23.34
11890.96        93.62           71.13
12221.46        93.36           -158.64
12561.16        93.14           66.91
12910.29        93.15           29.67
13269.13        93.00           82.63
13637.94        92.45           174.20
14017.00        91.96           -6.81
14406.60        91.06           -91.94
14807.03        88.59           -73.89
15218.59        84.98           52.98
15641.58        84.27           -71.20
16076.34        84.06           -90.08
16523.17        84.40           5.83
16982.43        84.95           -112.44
17454.45        85.12           -79.48
17939.60        84.63           75.52
18438.22        83.94           -6.98
18950.71        82.91           10.42
19477.44        82.10           109.75
20018.81        81.64           -86.97
20575.22        81.42           152.80
21147.11        80.26           60.16
21734.88        77.89           -8.13
