Freq [Hz]       dBSPL           Phase [Deg]
20.00           61.22           -32.04
20.56           61.34           -35.48
21.13           61.36           -38.72
21.71           61.26           -41.68
22.32           61.06           -44.32
22.94           60.84           -49.39
23.58           60.46           -54.20
24.23           59.89           -58.22
24.90           59.11           -61.41
25.60           58.09           -63.81
26.31           56.81           -65.55
27.04           55.33           -66.82
27.79           53.81           -67.90
28.56           52.56           -69.03
29.36           52.00           -70.47
30.17           52.50           -72.46
31.01           53.90           -75.22
31.87           55.68           -78.95
32.76           57.38           -83.87
33.67           58.82           -90.18
34.61           60.00           -98.17
35.57           60.96           -108.20
36.56           61.78           -120.73
37.57           62.54           -136.33
38.62           63.32           -155.40
39.69           64.18           -177.86
40.79           65.20           156.95
41.93           66.40           130.45
43.09           67.71           104.80
44.29           69.07           82.34
45.52           70.42           65.00
46.79           71.76           54.12
48.09           73.12           50.30
49.42           74.57           53.21
50.80           76.11           61.98
52.21           77.73           75.18
53.66           79.38           90.78
55.15           81.02           106.50
56.69           82.62           120.62
58.26           84.17           132.25
59.88           85.70           141.41
61.54           87.21           148.77
63.26           88.70           155.03
65.01           90.19           160.71
66.82           91.66           166.20
68.68           93.08           171.88
70.59           94.41           178.00
72.55           95.63           -175.32
74.57           96.76           -168.19
76.64           97.82           -160.72
78.77           98.80           -152.96
80.96           99.69           -144.80
83.21           100.48          -136.07
85.52           101.17          -126.61
87.90           101.80          -116.30
90.34           102.37          -105.12
92.85           102.88          -93.07
95.43           103.33          -80.13
98.08           103.72          -66.23
100.81          104.08          -51.34
103.61          104.39          -35.47
106.49          104.66          -18.60
109.45          104.90          -0.72
112.49          105.10          18.12
115.62          105.25          37.92
118.84          105.35          58.69
122.14          105.38          80.57
125.53          105.36          103.79
129.02          105.29          128.44
132.61          105.21          154.51
136.29          105.12          -178.06
140.08          105.03          -149.30
143.98          104.94          -119.15
147.98          104.86          -87.52
152.09          104.83          -54.51
156.32          104.86          -20.35
160.66          104.93          14.73
165.13          105.00          50.73
169.72          105.04          87.84
174.44          105.05          126.19
179.28          105.04          165.98
184.27          105.02          -152.84
189.39          105.00          -110.21
194.65          104.96          -66.15
200.06          104.88          -20.61
205.62          104.75          26.75
211.34          104.61          76.17
217.21          104.51          127.52
223.25          104.46          -179.55
229.46          104.43          -125.39
235.83          104.41          -69.81
242.39          104.35          -12.80
249.12          104.29          45.98
256.05          104.26          106.60
263.17          104.30          168.84
270.48          104.37          -127.63
278.00          104.37          -62.47
285.73          104.30          5.12
293.67          104.19          75.41
301.83          104.11          148.23
310.22          104.06          -136.71
318.84          103.97          -59.61
327.70          103.80          19.57
336.81          103.62          101.61
346.17          103.50          -174.22
355.80          103.34          -88.08
365.68          103.10          1.21
375.85          102.92          93.68
386.29          102.74          -171.65
397.03          102.53          -73.92
408.07          102.53          27.37
419.41          102.65          130.45
431.07          102.53          -123.82
443.05          102.37          -13.97
455.36          102.45          98.26
468.02          102.38          -147.29
481.03          102.28          -27.44
494.40          102.42          95.53
508.14          102.49          -139.34
522.26          102.46          -10.10
536.78          102.49          123.01
551.70          102.68          -100.37
567.03          102.89          39.63
582.79          103.13          -176.85
598.99          103.35          -31.57
615.64          103.27          116.79
632.75          103.00          -88.78
650.34          102.77          70.84
668.42          102.48          -123.84
686.99          102.33          45.71
706.09          101.99          -139.90
725.71          101.69          39.61
745.89          101.44          -134.93
766.62          101.23          54.88
787.93          101.24          -109.69
809.83          101.13          90.55
832.33          101.09          -64.14
855.47          100.82          146.93
879.25          100.75          4.29
903.68          100.56          -133.15
928.80          100.28          95.15
954.62          99.81           -29.35
981.15          99.49           -147.01
1008.42         99.14           103.26
1036.45         98.76           1.35
1065.26         98.38           -94.04
1094.87         98.03           178.53
1125.30         97.46           97.02
1156.58         97.02           28.38
1188.72         97.32           -34.35
1221.76         97.92           -91.32
1255.72         98.31           -142.08
1290.62         98.58           172.45
1326.50         98.56           133.04
1363.37         98.28           101.81
1401.26         97.81           81.67
1440.21         97.57           72.63
1480.24         96.74           70.13
1521.38         95.31           72.25
1563.67         93.73           91.04
1607.13         92.29           116.08
1651.80         90.88           149.83
1697.71         91.69           -164.15
1744.90         92.19           -110.86
1793.40         92.72           -44.52
1843.24         93.06           32.63
1894.48         93.66           128.77
1947.13         94.15           -121.23
2001.25         94.46           2.84
2056.88         94.55           148.77
2114.05         94.41           -50.15
2172.81         94.30           130.57
2233.20         94.46           -34.60
2295.27         94.41           177.58
2359.07         94.27           44.78
2424.64         93.94           -69.48
2492.03         93.72           -165.55
2561.29         93.69           113.30
2632.48         93.58           50.77
2705.65         93.26           4.66
2780.86         92.77           -22.33
2858.15         92.03           -29.27
2937.59         91.29           -10.46
3019.24         90.63           33.21
3103.16         89.83           101.58
3189.41         89.10           -170.36
3278.06         88.46           -58.68
3369.17         87.93           76.76
3462.82         88.15           -124.30
3559.06         88.64           54.16
3657.99         88.72           -105.03
3759.66         88.69           106.51
3864.16         88.54           -68.55
3971.56         88.00           134.27
4081.95         87.59           4.39
4195.41         87.03           -95.42
4312.02         87.16           -166.94
4431.87         87.48           150.31
4555.05         87.65           140.36
4681.66         87.83           163.16
4811.78         87.94           -105.84
4945.53         87.86           39.54
5082.99         87.61           148.43
5224.27         87.18           -91.52
5369.47         86.14           67.13
5518.72         84.85           -99.90
5672.11         83.64           135.91
5829.76         84.00           52.21
5991.80         84.55           10.91
6158.34         85.24           12.45
6329.51         85.75           102.18
6505.44         85.86           -73.45
6686.25         85.85           132.89
6872.10         85.74           28.36
7063.10         86.71           -23.88
7259.42         88.49           -30.93
7461.19         90.16           11.39
7668.58         90.87           100.66
7881.72         90.96           -115.74
8100.79         90.95           86.72
8325.95         90.95           5.76
8557.37         90.88           -41.52
8795.22         90.72           -35.42
9039.68         90.10           24.39
9290.93         89.11           144.34
9549.17         89.56           -32.23
9814.59         91.19           -144.05
10087.38        92.31           167.50
10367.76        92.69           -175.98
10655.93        92.83           -65.09
10952.11        92.79           124.74
11256.52        92.87           32.13
11569.39        93.18           16.38
11890.96        93.23           78.48
12221.46        92.84           -140.09
12561.16        92.07           85.02
12910.29        91.78           37.66
13269.13        91.73           81.75
13637.94        91.80           -139.44
14017.00        91.74           100.39
14406.60        91.22           75.13
14807.03        90.02           147.03
15218.59        88.75           -37.70
15641.58        88.05           -118.73
16076.34        87.27           -90.30
16523.17        86.87           48.16
16982.43        86.31           -54.36
17454.45        86.02           -31.47
17939.60        85.85           101.91
18438.22        85.66           -62.50
18950.71        84.84           -114.03
19477.44        82.25           -70.92
20018.81        81.06           178.42
20575.22        78.81           50.94
21147.11        77.71           -53.19
21734.88        77.84           -156.77
