Freq [Hz]       dBSPL           Phase [Deg]
20.00           66.04           -123.51
20.56           66.56           -116.80
21.13           66.97           -112.07
21.71           67.25           -109.71
22.32           67.40           -109.87
22.94           67.68           -107.91
23.58           67.81           -110.75
24.23           67.79           -119.15
24.90           67.60           -132.47
25.60           67.24           -149.45
26.31           66.74           -168.11
27.04           66.13           174.27
27.79           65.51           160.38
28.56           65.04           152.29
29.36           64.89           151.30
30.17           65.19           157.77
31.01           65.93           170.97
31.87           66.94           -171.12
32.76           68.04           -151.64
33.67           69.09           -134.15
34.61           70.07           -122.02
35.57           70.98           -117.79
36.56           71.90           -122.92
37.57           72.91           -137.62
38.62           74.13           -161.01
39.69           75.64           168.78
40.79           77.42           134.50
41.93           79.34           99.19
43.09           81.16           65.64
44.29           82.72           36.32
45.52           83.94           13.28
46.79           84.82           -1.98
48.09           85.39           -8.41
49.42           85.70           -5.46
50.80           85.81           6.37
52.21           85.72           25.23
53.66           85.47           47.79
55.15           85.09           70.44
56.69           84.74           90.71
58.26           84.64           107.67
59.88           84.91           121.59
61.54           85.54           132.46
63.26           86.44           139.93
65.01           87.63           143.78
66.82           89.06           145.11
68.68           90.59           146.36
70.59           91.97           149.62
72.55           93.12           155.50
74.57           94.13           162.85
76.64           95.10           170.12
78.77           96.05           176.60
80.96           96.94           -177.30
83.21           97.71           -170.70
85.52           98.38           -162.97
87.90           98.98           -154.03
90.34           99.53           -144.22
92.85           100.02          -133.82
95.43           100.41          -122.74
98.08           100.69          -110.63
100.81          100.90          -97.23
103.61          101.11          -82.56
106.49          101.34          -66.74
109.45          101.55          -49.88
112.49          101.76          -32.09
115.62          101.99          -13.44
118.84          102.20          5.91
122.14          102.34          25.81
125.53          102.42          46.50
129.02          102.42          68.09
132.61          102.34          90.58
136.29          102.22          114.26
140.08          102.04          139.61
143.98          101.79          166.67
147.98          101.51          -164.87
152.09          101.25          -134.87
156.32          101.03          -103.78
160.66          100.78          -71.71
165.13          100.51          -37.81
169.72          100.22          -1.74
174.44          99.93           35.76
179.28          99.63           74.59
184.27          99.36           115.20
189.39          99.16           157.49
194.65          99.08           -158.94
200.06          99.08           -114.14
205.62          99.17           -68.32
211.34          99.21           -22.08
217.21          99.15           25.63
223.25          99.24           75.41
229.46          99.33           126.77
235.83          99.17           178.03
242.39          98.93           -128.60
249.12          98.59           -73.72
256.05          98.25           -16.01
263.17          98.00           43.80
270.48          97.92           105.47
278.00          97.75           168.10
285.73          97.27           -128.51
293.67          97.03           -61.04
301.83          96.93           8.71
310.22          96.81           79.69
318.84          96.77           151.08
327.70          96.53           -133.55
336.81          96.31           -55.87
346.17          96.05           23.45
355.80          95.76           105.20
365.68          95.45           -169.17
375.85          95.31           -82.01
386.29          95.05           7.25
397.03          94.73           99.72
408.07          94.28           -167.58
419.41          94.00           -69.69
431.07          93.58           30.25
443.05          93.12           134.23
455.36          92.92           -120.42
468.02          92.32           -14.28
481.03          91.24           99.10
494.40          90.64           -141.50
508.14          90.38           -16.04
522.26          90.11           111.48
536.78          89.89           -119.23
551.70          89.67           14.26
567.03          89.67           150.16
582.79          89.57           -69.98
598.99          89.69           75.23
615.64          89.55           -141.26
632.75          88.83           9.59
650.34          88.69           161.34
668.42          87.97           -40.64
686.99          87.77           125.79
706.09          87.06           -65.99
725.71          86.31           109.56
745.89          85.45           -69.63
766.62          85.32           115.68
787.93          85.67           -59.37
809.83          85.19           121.02
832.33          84.94           -72.77
855.47          84.15           88.08
879.25          83.59           -95.23
903.68          83.10           85.72
928.80          83.03           -87.16
954.62          82.30           103.09
981.15          80.71           -76.95
1008.42         81.69           101.85
1036.45         82.92           -83.85
1065.26         82.90           81.74
1094.87         83.24           -133.23
1125.30         84.95           14.79
1156.58         86.39           167.48
1188.72         87.31           -35.62
1221.76         88.23           136.24
1255.72         88.21           -31.62
1290.62         87.82           162.58
1326.50         87.88           46.88
1363.37         88.03           -41.87
1401.26         88.50           -113.64
1440.21         87.87           -174.86
1480.24         87.31           139.99
1521.38         86.36           110.18
1563.67         86.08           104.69
1607.13         86.83           130.32
1651.80         87.82           167.36
1697.71         88.59           -144.19
1744.90         88.54           -82.06
1793.40         88.69           -7.40
1843.24         88.68           78.24
1894.48         88.63           175.32
1947.13         88.71           -80.54
2001.25         88.53           31.94
2056.88         87.86           161.01
2114.05         86.43           -52.91
2172.81         85.85           110.51
2233.20         84.13           -70.35
2295.27         83.48           128.37
2359.07         82.61           -23.63
2424.64         81.12           171.21
2492.03         80.90           13.09
2561.29         79.72           -147.32
2632.48         79.34           46.72
2705.65         79.03           -134.23
2780.86         78.70           -12.44
2858.15         78.79           114.43
2937.59         78.91           -101.92
3019.24         78.89           82.62
3103.16         78.36           -46.50
3189.41         78.91           -148.98
3278.06         79.09           159.87
3369.17         78.76           167.43
3462.82         78.87           -117.94
3559.06         78.54           28.64
3657.99         78.38           -159.84
3759.66         78.07           12.92
3864.16         77.81           -165.53
3971.56         77.28           -32.73
4081.95         76.64           82.64
4195.41         76.76           -143.33
4312.02         75.62           -33.85
4431.87         75.40           46.25
4555.05         75.01           143.69
4681.66         74.97           -113.39
4811.78         75.32           42.38
4945.53         75.67           -87.41
5082.99         75.44           -122.47
5224.27         75.37           -99.39
5369.47         75.32           -18.29
5518.72         75.15           167.15
5672.11         75.01           -10.63
5829.76         74.92           161.07
5991.80         74.53           -11.05
6158.34         73.83           159.73
6329.51         73.46           5.74
6505.44         73.79           -139.21
6686.25         73.66           88.28
6872.10         73.84           -8.81
7063.10         74.37           -21.61
7259.42         75.35           44.71
7461.19         75.94           177.39
7668.58         76.24           7.13
7881.72         76.15           178.07
8100.79         75.89           9.76
8325.95         75.51           -98.29
8557.37         75.37           -147.48
8795.22         75.44           -143.25
9039.68         74.72           -61.63
9290.93         73.65           23.36
9549.17         72.83           69.52
9814.59         73.31           170.19
10087.38        73.45           -51.54
10367.76        73.49           53.83
10655.93        73.45           63.97
10952.11        73.27           -72.33
11256.52        72.92           97.19
11569.39        72.62           -81.38
11890.96        72.19           -174.17
12221.46        71.92           -107.07
12561.16        71.21           102.05
12910.29        70.62           -55.08
13269.13        70.61           98.27
13637.94        70.35           -61.26
14017.00        70.06           82.38
14406.60        70.14           53.77
14807.03        69.43           -90.09
15218.59        69.03           -8.25
15641.58        69.04           -110.07
16076.34        68.88           4.45
16523.17        68.90           112.75
16982.43        67.53           145.75
17454.45        67.39           176.38
17939.60        68.02           48.50
18438.22        67.56           -161.79
18950.71        67.34           -12.02
19477.44        72.60           -137.20
20018.81        76.03           -88.48
20575.22        76.56           138.80
21147.11        77.17           -122.06
21734.88        77.90           -162.41
