Freq [Hz]       dBSPL           Phase [Deg]
20.00           58.41           -64.73
20.56           58.54           -72.42
21.13           58.63           -79.27
21.71           58.66           -85.00
22.32           58.63           -89.47
22.94           58.62           -98.61
23.58           58.52           -105.98
24.23           58.31           -110.47
24.90           57.99           -112.13
25.60           57.56           -111.32
26.31           57.03           -108.77
27.04           56.42           -105.56
27.79           55.78           -102.79
28.56           55.16           -101.34
29.36           54.61           -101.72
30.17           54.19           -104.09
31.01           53.95           -108.14
31.87           53.89           -113.03
32.76           54.00           -117.44
33.67           54.27           -119.82
34.61           54.68           -118.69
35.57           55.26           -112.83
36.56           56.08           -101.41
37.57           57.24           -84.08
38.62           58.87           -60.99
39.69           60.97           -32.90
40.79           63.37           -1.23
41.93           65.75           32.18
43.09           67.82           65.21
44.29           69.47           95.79
45.52           70.77           122.20
46.79           71.86           143.15
48.09           72.93           157.88
49.42           74.15           166.18
50.80           75.61           168.46
52.21           77.28           165.80
53.66           78.97           160.08
55.15           80.50           153.47
56.69           81.86           147.64
58.26           83.15           143.62
59.88           84.49           141.73
61.54           85.96           142.07
63.26           87.51           144.59
65.01           89.04           149.12
66.82           90.46           155.13
68.68           91.78           161.74
70.59           93.05           168.25
72.55           94.26           174.41
74.57           95.41           -179.51
76.64           96.45           -173.05
78.77           97.38           -165.96
80.96           98.22           -158.20
83.21           98.98           -149.84
85.52           99.67           -140.90
87.90           100.28          -131.31
90.34           100.82          -120.93
92.85           101.27          -109.65
95.43           101.64          -97.36
98.08           101.97          -84.01
100.81          102.26          -69.58
103.61          102.52          -54.13
106.49          102.75          -37.66
109.45          102.97          -20.14
112.49          103.18          -1.66
115.62          103.36          17.63
118.84          103.48          37.70
122.14          103.53          58.64
125.53          103.49          80.67
129.02          103.39          104.08
132.61          103.25          129.02
136.29          103.06          155.42
140.08          102.84          -176.78
143.98          102.59          -147.44
147.98          102.34          -116.49
152.09          102.12          -83.99
156.32          101.98          -49.98
160.66          101.91          -14.69
165.13          101.90          21.55
169.72          101.91          58.72
174.44          101.91          97.07
179.28          101.90          136.74
184.27          101.91          177.78
189.39          101.95          -139.92
194.65          101.98          -96.57
200.06          101.97          -52.18
205.62          101.86          -6.34
211.34          101.66          41.65
217.21          101.45          91.94
223.25          101.29          144.05
229.46          101.15          -162.54
235.83          100.99          -107.63
242.39          100.78          -50.94
249.12          100.60          7.81
256.05          100.52          68.50
263.17          100.58          130.80
270.48          100.71          -165.92
278.00          100.78          -101.39
285.73          100.75          -34.58
293.67          100.67          34.86
301.83          100.65          106.65
310.22          100.62          -179.54
318.84          100.51          -103.72
327.70          100.35          -25.62
336.81          100.20          55.29
346.17          100.13          138.38
355.80          100.12          -136.84
365.68          99.96           -50.44
375.85          99.71           39.49
386.29          99.46           132.10
397.03          99.22           -131.81
408.07          99.13           -31.78
419.41          99.18           70.00
431.07          99.07           174.01
443.05          98.84           -78.74
455.36          98.72           31.82
468.02          98.68           144.41
481.03          98.53           -98.24
494.40          98.59           21.64
508.14          98.52           143.02
522.26          98.26           -91.00
536.78          97.92           37.69
551.70          97.44           171.18
567.03          97.01           -50.05
582.79          96.64           92.73
598.99          96.56           -121.44
615.64          96.18           27.07
632.75          95.59           -177.37
650.34          95.18           -17.61
668.42          94.45           148.45
686.99          94.31           -40.55
706.09          94.23           133.88
725.71          94.11           -48.44
745.89          93.92           135.13
766.62          93.86           -36.94
787.93          93.96           154.16
809.83          93.69           -9.48
832.33          93.48           -168.37
855.47          92.82           37.08
879.25          92.16           -104.16
903.68          91.29           123.69
928.80          90.76           -4.37
954.62          89.75           -127.11
981.15          88.72           118.86
1008.42         88.58           14.25
1036.45         88.70           -86.31
1065.26         89.23           -177.96
1094.87         89.93           92.24
1125.30         90.00           0.27
1156.58         90.36           -113.89
1188.72         90.73           135.35
1221.76         91.21           31.05
1255.72         91.42           -69.57
1290.62         91.24           -164.98
1326.50         90.73           108.29
1363.37         90.17           17.57
1401.26         89.98           -72.82
1440.21         89.75           -133.75
1480.24         88.85           -167.01
1521.38         87.64           171.25
1563.67         86.97           173.65
1607.13         87.57           -171.68
1651.80         89.46           -148.07
1697.71         91.08           -106.57
1744.90         91.61           -40.10
1793.40         92.01           45.16
1843.24         92.35           140.57
1894.48         92.68           -110.24
1947.13         92.92           2.25
2001.25         92.85           126.14
2056.88         92.47           -91.94
2114.05         91.44           65.47
2172.81         90.73           -119.34
2233.20         89.92           70.93
2295.27         89.18           -80.98
2359.07         88.02           143.80
2424.64         86.64           24.44
2492.03         85.44           -76.66
2561.29         84.16           -164.77
2632.48         83.00           87.89
2705.65         81.76           -32.09
2780.86         80.77           -134.11
2858.15         80.21           142.45
2937.59         79.75           77.17
3019.24         79.39           33.33
3103.16         79.67           12.47
3189.41         80.28           12.14
3278.06         81.05           53.78
3369.17         81.49           165.04
3462.82         81.60           -56.36
3559.06         81.43           107.52
3657.99         81.15           -60.52
3759.66         80.87           159.70
3864.16         80.45           45.63
3971.56         79.57           -39.36
4081.95         78.78           -97.46
4195.41         77.75           -124.61
4312.02         77.44           -136.88
4431.87         76.87           -163.20
4555.05         76.73           158.59
4681.66         76.82           132.38
4811.78         77.39           132.16
4945.53         78.48           166.12
5082.99         79.05           -129.05
5224.27         79.50           -30.63
5369.47         79.79           108.05
5518.72         79.96           -42.13
5672.11         79.94           148.94
5829.76         79.84           -32.73
5991.80         79.50           131.79
6158.34         78.83           -23.99
6329.51         78.26           -132.17
6505.44         78.13           162.95
6686.25         77.58           140.29
6872.10         77.02           170.15
7063.10         77.13           -57.13
7259.42         78.34           -120.79
7461.19         79.79           -72.18
7668.58         80.15           37.01
7881.72         79.90           169.40
8100.79         79.49           -149.85
8325.95         79.18           173.27
8557.37         79.90           -177.77
8795.22         80.70           -120.13
9039.68         80.69           -5.48
9290.93         79.77           171.29
9549.17         79.00           -17.27
9814.59         79.63           102.98
10087.38        80.01           -51.80
10367.76        80.16           -173.76
10655.93        79.95           -14.61
10952.11        79.57           86.45
11256.52        78.96           -102.39
11569.39        78.79           121.28
11890.96        78.87           15.91
12221.46        78.67           74.70
12561.16        78.31           -26.96
12910.29        78.21           -87.03
13269.13        77.92           -117.41
13637.94        77.07           -172.84
14017.00        76.29           -15.84
14406.60        76.03           -42.89
14807.03        75.84           -136.47
15218.59        75.24           -14.05
15641.58        74.90           -18.34
16076.34        73.96           145.23
16523.17        73.47           45.09
16982.43        73.04           87.86
17454.45        72.96           71.67
17939.60        72.91           107.33
18438.22        72.26           70.83
18950.71        71.30           16.83
19477.44        70.82           24.50
20018.81        71.47           58.31
20575.22        71.72           -75.42
21147.11        72.13           10.73
21734.88        72.58           120.03
