Freq [Hz]       dBSPL           Phase [Deg]
20.00           66.16           -67.46
20.56           66.32           -70.08
21.13           66.33           -71.70
21.71           66.19           -72.08
22.32           65.93           -71.16
22.94           65.67           -70.56
23.58           65.23           -67.37
24.23           64.57           -61.29
24.90           63.64           -52.61
25.60           62.39           -41.97
26.31           60.77           -30.38
27.04           58.83           -19.23
27.79           56.76           -10.01
28.56           54.99           -4.07
29.36           54.28           -2.52
30.17           55.21           -6.22
31.01           57.24           -15.73
31.87           59.42           -31.23
32.76           61.16           -52.43
33.67           62.40           -78.36
34.61           63.26           -107.47
35.57           63.88           -137.72
36.56           64.38           -166.51
37.57           64.90           169.28
38.62           65.62           152.59
39.69           66.64           145.28
40.79           67.80           147.83
41.93           68.60           159.00
43.09           68.81           175.64
44.29           68.70           -166.11
45.52           68.52           -149.75
46.79           68.28           -138.28
48.09           67.89           -133.63
49.42           67.14           -136.17
50.80           66.61           -145.30
52.21           71.83           -159.42
53.66           78.71           -175.84
55.15           82.52           168.75
56.69           84.35           156.90
58.26           85.39           149.97
59.88           86.32           147.94
61.54           87.47           149.57
63.26           88.94           153.50
65.01           90.51           158.70
66.82           91.89           164.52
68.68           93.07           170.72
70.59           94.23           177.15
72.55           95.42           -176.21
74.57           96.59           -169.33
76.64           97.68           -162.11
78.77           98.66           -154.46
80.96           99.52           -146.28
83.21           100.29          -137.50
85.52           100.98          -128.03
87.90           101.61          -117.82
90.34           102.17          -106.79
92.85           102.66          -94.87
95.43           103.10          -81.99
98.08           103.49          -68.11
100.81          103.84          -53.23
103.61          104.15          -37.40
106.49          104.42          -20.59
109.45          104.66          -2.74
112.49          104.86          16.11
115.62          105.02          35.87
118.84          105.12          56.57
122.14          105.16          78.35
125.53          105.12          101.43
129.02          105.06          125.96
132.61          104.98          151.97
136.29          104.88          179.38
140.08          104.78          -151.93
143.98          104.67          -121.84
147.98          104.57          -90.20
152.09          104.53          -57.22
156.32          104.55          -23.03
160.66          104.62          12.12
165.13          104.69          48.10
169.72          104.72          85.13
174.44          104.73          123.40
179.28          104.71          163.16
184.27          104.70          -155.73
189.39          104.68          -113.18
194.65          104.65          -69.25
200.06          104.57          -23.84
205.62          104.43          23.34
211.34          104.28          72.67
217.21          104.18          123.96
223.25          104.11          176.74
229.46          104.08          -129.23
235.83          104.04          -73.72
242.39          103.98          -16.74
249.12          103.92          42.03
256.05          103.89          102.63
263.17          103.94          164.83
270.48          104.01          -131.73
278.00          104.03          -66.65
285.73          103.95          0.91
293.67          103.85          71.06
301.83          103.77          143.75
310.22          103.73          -141.53
318.84          103.69          -64.90
327.70          103.50          14.15
336.81          103.33          95.96
346.17          103.21          179.94
355.80          103.05          -94.22
365.68          102.80          -5.28
375.85          102.59          87.02
386.29          102.39          -178.51
397.03          102.08          -80.54
408.07          102.09          20.83
419.41          102.18          123.79
431.07          102.04          -130.70
443.05          101.83          -20.96
455.36          101.89          91.24
468.02          101.80          -154.38
481.03          101.67          -34.51
494.40          101.82          88.43
508.14          101.83          -146.60
522.26          101.77          -17.44
536.78          101.75          115.60
551.70          101.91          -107.57
567.03          102.13          32.51
582.79          102.35          176.13
598.99          102.60          -38.65
615.64          102.53          109.61
632.75          102.27          -96.21
650.34          102.03          63.11
668.42          101.74          -131.68
686.99          101.63          37.52
706.09          101.28          -148.53
725.71          100.98          30.53
745.89          100.71          -144.40
766.62          100.48          44.90
787.93          100.43          -120.25
809.83          100.27          79.61
832.33          100.14          -75.39
855.47          99.79           135.75
879.25          99.62           -6.59
903.68          99.37           -143.78
928.80          99.02           84.58
954.62          98.41           -39.65
981.15          98.03           -156.63
1008.42         97.67           94.29
1036.45         97.31           -7.31
1065.26         97.01           -102.70
1094.87         96.70           169.59
1125.30         96.11           87.46
1156.58         95.70           19.51
1188.72         96.06           -43.26
1221.76         96.69           -100.40
1255.72         97.08           -151.73
1290.62         97.34           162.47
1326.50         97.31           121.75
1363.37         97.00           87.80
1401.26         96.48           63.60
1440.21         96.22           53.95
1480.24         95.25           51.20
1521.38         93.80           50.80
1563.67         92.16           66.33
1607.13         91.25           89.58
1651.80         90.52           121.72
1697.71         91.81           168.98
1744.90         92.73           -134.80
1793.40         93.44           -67.61
1843.24         94.10           7.40
1894.48         94.78           103.76
1947.13         95.16           -144.13
2001.25         95.37           -19.52
2056.88         95.29           126.80
2114.05         95.10           -72.21
2172.81         94.80           107.33
2233.20         94.75           -58.77
2295.27         94.42           152.81
2359.07         94.13           20.01
2424.64         93.57           -94.45
2492.03         93.18           169.01
2561.29         93.03           86.97
2632.48         92.64           23.24
2705.65         92.07           -24.04
2780.86         91.37           -52.06
2858.15         90.51           -56.93
2937.59         89.63           -31.91
3019.24         88.94           14.66
3103.16         88.11           84.11
3189.41         87.17           173.63
3278.06         86.74           -72.80
3369.17         86.63           64.01
3462.82         87.05           -135.66
3559.06         87.54           42.68
3657.99         87.62           -123.35
3759.66         87.49           83.31
3864.16         87.39           -59.87
3971.56         86.87           -177.26
4081.95         86.59           93.63
4195.41         86.18           34.04
4312.02         86.66           2.89
4431.87         87.24           -0.25
4555.05         87.35           28.71
4681.66         87.50           90.80
4811.78         87.52           -162.17
4945.53         87.34           -25.54
5082.99         87.15           143.91
5224.27         86.86           -12.24
5369.47         86.33           -130.23
5518.72         86.06           147.22
5672.11         85.50           107.88
5829.76         85.92           110.06
5991.80         86.30           155.39
6158.34         86.41           -113.88
6329.51         86.33           2.68
6505.44         86.24           124.29
6686.25         86.23           -72.19
6872.10         86.15           140.13
7063.10         87.03           44.04
7259.42         88.40           -7.32
7461.19         89.25           -8.80
7668.58         89.47           38.25
7881.72         89.48           146.53
8100.79         89.48           -19.13
8325.95         89.31           -127.82
8557.37         89.15           -179.59
8795.22         89.17           178.73
9039.68         89.52           -128.39
9290.93         90.62           -13.75
9549.17         92.46           164.18
9814.59         93.64           44.78
10087.38        93.96           1.56
10367.76        94.00           41.33
10655.93        94.03           143.73
10952.11        94.06           -38.17
11256.52        93.99           -137.70
11569.39        94.02           -160.77
11890.96        93.90           -107.10
12221.46        93.61           27.34
12561.16        93.32           -110.23
12910.29        93.40           -157.34
13269.13        93.39           -108.21
13637.94        93.19           32.79
14017.00        92.92           -134.59
14406.60        92.28           144.73
14807.03        90.75           166.97
15218.59        88.49           -64.17
15641.58        87.17           170.67
16076.34        86.57           154.78
16523.17        86.27           -108.00
16982.43        86.32           110.50
17454.45        86.46           116.86
17939.60        86.32           -86.55
18438.22        85.93           153.17
18950.71        84.41           156.83
19477.44        81.89           -163.38
20018.81        80.67           95.80
20575.22        80.14           -19.67
21147.11        79.55           -114.14
21734.88        78.64           169.47
